# Unindexed and unrefined Spots of: /home/micha/lauetoolsgithub/LaueTools/Examples/CuSi/corfiles/SiCustrain0.cor
# File created at Thu May  4 14:34:19 2023 with indexingSpotsSet.py
# Number of unindexed spots: 175
#Element
None
#grainIndex
None
#spot_index intensity 2theta Chi Xexp Yexp
1.000000 152.578110 70.567497 -30.791300 1635.160767 1474.077515
2.000000 151.093689 69.779099 32.015900 356.521790 1495.008545
4.000000 139.180984 78.910202 0.696500 999.106384 1247.712280
5.000000 138.524872 110.494301 0.930700 996.546326 648.405212
7.000000 107.626869 101.970299 -19.921200 1394.451660 806.063721
8.000000 107.331032 92.904404 -43.005402 1992.772583 972.204773
9.000000 107.218826 101.434700 21.561300 597.482178 812.127930
10.000000 106.397697 91.859497 44.347500 -14.344800 991.384216
11.000000 103.399887 75.654404 -19.457500 1381.922485 1327.585938
12.000000 102.795311 75.134201 20.777201 613.932495 1338.532349
15.000000 98.616219 119.683601 -20.414301 1407.052490 401.662689
16.000000 98.339539 119.131599 22.391300 579.744507 404.953400
17.000000 95.169029 101.752197 0.850400 997.516113 823.254089
19.000000 88.429138 117.849701 1.013300 995.497620 484.926697
21.000000 82.542442 92.722900 -31.393900 1653.845703 985.549377
22.000000 81.989059 91.918701 32.832401 334.706207 998.243897
24.000000 79.791077 109.101501 -32.022800 1672.614746 613.838013
25.000000 79.597809 129.384506 1.185700 993.206909 174.406692
26.000000 79.382912 108.280899 33.680302 311.750092 621.881775
28.000000 76.573318 77.246399 -13.985400 1272.865967 1287.518555
29.000000 76.253281 76.863602 15.338600 724.142822 1295.019409
30.000000 76.173592 112.083099 -14.423000 1284.748413 601.627686
31.000000 75.994194 111.682701 16.273300 706.253113 604.882324
32.000000 73.799706 121.239098 -32.679798 1692.098267 283.276886
33.000000 73.494446 120.401298 34.561001 287.427185 287.729004
35.000000 71.892380 96.769402 0.811200 997.964905 917.328430
37.000000 70.375648 123.280998 -14.657600 1290.708252 326.799011
38.000000 70.239616 122.871201 16.772499 696.482605 328.784607
41.000000 67.668343 47.324902 0.550800 999.557800 2003.975708
43.000000 65.752060 91.444199 -24.318001 1487.268555 1014.528687
44.000000 65.393326 90.803703 25.787901 505.018005 1024.278198
45.000000 64.936668 100.122101 -38.737999 1857.190796 803.907104
46.000000 64.702301 121.089600 1.055400 994.947815 405.848511
47.000000 64.478859 99.160400 40.201199 124.169800 817.404419
48.000000 64.247528 131.854599 -14.903800 1296.871216 62.670299
49.000000 64.142158 131.435104 17.294600 686.146423 63.499600
50.000000 62.807324 93.960197 -10.928400 1215.591553 968.682312
52.000000 62.650436 93.653297 12.490800 779.904297 972.748413
53.000000 62.216949 111.830002 -39.360401 1878.907471 498.514496
54.000000 62.085506 73.930801 -23.958700 1477.100220 1373.862549
56.000000 61.856731 110.854103 40.978802 98.355698 507.461304
57.000000 61.631992 73.301002 25.244101 517.431885 1388.184082
59.000000 61.414005 106.710297 -11.042700 1218.868530 720.796997
60.000000 61.292499 116.045197 -25.076799 1507.609497 474.672913
61.000000 61.289459 106.397797 12.805900 774.164185 723.780212
62.000000 61.070381 115.382004 26.930401 478.521301 479.429291
65.000000 60.466072 77.922600 -10.818200 1212.159912 1271.198364
66.000000 60.269466 77.621002 12.186500 785.324280 1276.930542
68.000000 59.798668 51.150398 -13.781000 1265.908203 1908.668945
70.000000 59.390285 50.775600 14.900500 732.092773 1923.014526
71.000000 58.532146 66.305801 -37.550701 1814.827148 1623.586914
72.000000 57.800694 65.371597 38.707199 172.622894 1654.007812
73.000000 57.656826 56.067501 0.586500 999.664612 1745.313355
74.000000 57.565155 93.561401 0.787800 998.220398 976.717896
75.000000 57.191746 124.634102 -25.477699 1518.193359 235.486694
76.000000 57.014263 123.958900 27.530701 464.342712 238.350693
77.000000 56.538097 105.433800 0.882300 997.138794 751.524414
80.000000 54.886734 135.990601 1.322000 991.339172 -53.833801
81.000000 54.841129 98.747200 -31.600500 1660.049438 854.117981
82.000000 54.569721 86.053703 -31.190201 1647.660156 1128.720825
83.000000 54.540886 125.001701 -11.284600 1225.417358 288.853210
84.000000 54.507973 97.937599 33.111500 327.194092 865.056885
85.000000 54.460476 124.677399 13.470700 761.820312 290.257690
86.000000 54.174614 90.107300 -19.685801 1388.243042 1041.205444
87.000000 54.161560 85.254898 32.556801 342.089996 1143.515625
88.000000 54.048504 115.056397 0.979900 995.925720 549.317383
89.000000 53.925446 89.579498 21.163700 605.864502 1049.211548
92.000000 52.786270 103.982002 -43.564999 2015.036011 683.336975
93.000000 52.404201 102.925400 45.023201 -40.146099 697.163879
95.000000 52.172897 79.379898 -42.459400 1970.899902 1311.488525
97.000000 51.915012 111.686997 -20.163900 1400.695557 596.971497
98.000000 51.747620 111.143303 21.970301 588.779724 601.540772
99.000000 51.604725 78.346603 43.685398 10.537200 1338.078369
100.000000 51.165813 102.775803 -8.886100 1177.684082 801.202576
101.000000 51.074661 102.519997 10.588500 816.524902 803.909180
103.000000 50.746326 131.623795 -11.412600 1228.790283 84.286903
104.000000 50.680485 131.293396 13.821600 755.215576 84.997398
105.000000 50.631092 117.578102 -32.457600 1685.502930 391.067291
106.000000 50.407417 116.746101 34.263699 295.697906 396.659912
107.000000 50.116295 52.131302 -23.611799 1466.065430 1929.321777
108.000000 49.854698 78.266701 -8.764600 1173.487549 1263.030151
109.000000 49.722027 78.018303 10.140900 824.237427 1267.677856
110.000000 49.562489 51.511902 24.717699 529.372620 1954.139893
112.000000 49.407211 111.962601 -8.949700 1179.665161 612.597412
113.000000 49.331677 111.702904 10.822200 812.380676 614.688782
115.000000 48.842747 61.050598 0.608100 999.633728 1620.779907
116.000000 47.917919 91.326599 0.772400 998.384216 1017.795593
117.000000 47.732948 124.572601 -32.905300 1698.807129 176.840103
118.000000 47.051674 97.178200 -26.475599 1536.546875 895.809204
119.000000 47.047264 119.597298 -9.015200 1181.637207 436.043793
120.000000 46.984245 119.333603 11.063000 808.064270 437.607910
121.000000 46.883598 93.091103 -36.438702 1788.489990 973.958923
123.000000 46.800552 96.485901 28.004700 453.798798 905.120300
124.000000 46.528660 92.177696 37.841599 196.440796 989.124390
126.000000 46.466415 126.318901 -20.672800 1413.570190 213.362793
128.000000 46.351040 125.758301 22.824699 570.360901 215.477997
129.000000 46.300755 102.909203 -36.853199 1802.270142 743.052918
131.000000 46.070488 106.449799 -26.770800 1544.673706 695.570129
132.000000 46.002518 101.985901 38.370800 180.101105 754.688904
133.000000 45.892277 81.411499 -36.033699 1774.842407 1240.343994
134.000000 45.867668 88.930298 -16.456800 1322.610352 1063.542847
135.000000 45.859421 105.748901 28.433500 443.465912 702.831726
137.000000 45.685337 88.483200 17.934099 672.536377 1070.371338
138.000000 45.470856 80.507797 37.322800 212.300796 1260.255005
139.000000 45.129124 87.132698 -45.927299 2096.496094 1121.010010
140.000000 45.061161 84.439102 -11.604900 1227.683960 1147.129150
141.000000 44.938469 124.668701 -15.414200 1305.860840 285.511810
142.000000 44.768387 108.113403 -16.774000 1330.928223 683.381103
143.000000 44.728619 58.292099 -19.236000 1375.140381 1727.202148
144.000000 44.655258 134.781494 1.294200 991.722473 -8.186700
145.000000 44.638355 107.654701 18.535200 660.526672 687.664123
146.000000 44.411953 62.259602 -8.706600 1171.009644 1599.262695
147.000000 44.369686 57.779201 20.401199 621.675903 1743.750488
148.000000 44.369587 114.253197 -27.073799 1552.932617 510.361298
149.000000 44.313042 110.535896 -23.642700 1474.943481 612.758789
150.000000 44.282330 102.085999 39.446999 147.431198 747.734375
151.000000 44.254955 62.014801 9.926600 827.704529 1605.957642
152.000000 44.233910 73.065102 -25.907101 1520.280884 1398.340576
153.000000 44.191494 113.543701 28.872200 432.797394 515.900513
154.000000 44.142197 65.751999 -9.496500 1186.136231 1520.733154
155.000000 44.066452 120.566299 -35.950100 1780.578369 274.053009
156.000000 44.059444 76.638001 -16.304399 1318.340942 1302.546143
157.000000 43.881550 72.389198 27.176201 473.553803 1414.331665
158.000000 43.844688 76.196404 17.644501 678.233582 1311.436768
159.000000 43.794266 89.975403 -7.361100 1148.152954 1043.028809
160.000000 43.787899 111.373703 -5.039400 1106.599854 628.597595
161.000000 43.712696 89.761803 8.879000 848.392578 1046.093750
162.000000 43.711185 99.790604 -7.394400 1149.500610 859.580505
163.000000 43.641861 135.790497 -4.502100 1099.080322 -48.920299
164.000000 43.641747 99.574303 9.052500 845.467590 862.042603
165.000000 43.640739 131.878006 -20.939699 1420.282959 27.948299
166.000000 43.543537 131.308594 23.271000 560.610474 28.928400
167.000000 43.538040 80.971703 -29.152000 1596.936768 1234.754761
168.000000 43.365848 106.410202 25.102699 520.273682 698.276978
169.000000 43.173904 122.444000 5.113700 920.062317 368.368713
170.000000 43.074818 115.542000 -16.938999 1335.115479 516.513306
171.000000 42.964539 115.077301 18.847099 654.219421 519.851379
172.000000 42.887402 118.129501 -37.711899 1830.774658 331.280090
173.000000 42.674606 117.185799 39.461399 145.727799 337.385986
174.000000 42.371784 78.463699 -7.328600 1146.696655 1258.387695
175.000000 42.276363 78.252701 8.709600 851.166870 1262.299805
176.000000 42.130116 97.253304 -13.454300 1264.390747 905.339478
177.000000 42.094238 82.654701 5.268900 915.302673 1177.711304
178.000000 42.026768 124.075699 1.098200 994.382202 327.951599
179.000000 42.011372 64.258697 0.622700 999.584595 1546.772339
180.000000 41.905827 131.387894 -9.152700 1185.644775 98.955299
181.000000 41.902313 62.032200 -28.367701 1575.176025 1674.856201
182.000000 41.883995 104.381500 -40.701302 1919.219727 688.763428
183.000000 41.860847 131.115799 11.566900 798.919678 99.573799
184.000000 41.172390 115.265602 -7.463700 1152.058960 540.879883
185.000000 41.145100 130.274506 16.777700 696.549622 105.617302
186.000000 41.121868 115.043602 9.413000 839.244507 542.462280
187.000000 41.104984 121.858299 -17.108601 1339.369141 356.934204
188.000000 41.062500 94.008202 -29.832600 1615.375610 959.087219
189.000000 41.010902 121.387398 19.167000 647.705505 359.420288
190.000000 41.001823 89.681503 0.761400 998.497803 1047.962646
191.000000 40.990074 95.679298 -22.673201 1451.921753 930.196106
192.000000 40.987454 98.958900 0.827900 997.775818 876.331421
193.000000 40.921051 101.536301 -31.705000 1663.167114 791.687317
194.000000 40.795013 95.077599 24.206699 540.283875 938.354126
195.000000 40.683582 100.723999 33.252300 323.387085 801.840027
196.000000 40.672596 107.153297 11.636800 796.671875 709.757812
197.000000 40.626080 85.928200 -22.465099 1446.269165 1124.330444
198.000000 40.548523 97.533501 -40.360901 1906.779053 862.329407
199.000000 40.525749 82.459396 -31.089399 1644.562256 1206.230347
200.000000 40.491306 88.271301 -39.969002 1892.405762 1086.157349
201.000000 40.399387 85.333000 23.880301 547.515076 1134.478149
202.000000 40.239231 96.539497 41.777599 73.582001 877.711670
203.000000 40.204044 81.663300 32.420299 345.737213 1222.259399
204.000000 40.192669 95.836502 2.612900 964.831116 934.467102
205.000000 40.179974 126.473801 -27.704201 1570.045654 161.418701
206.000000 40.175777 106.934097 0.896000 996.972595 721.569519
207.000000 40.131584 87.286102 41.292801 90.252899 1105.630615
208.000000 40.092983 64.050102 8.200300 860.123474 1556.253296
209.000000 40.050705 125.746201 29.781000 410.368195 163.944900
# Calibration parameters
# dd     :   77.088
# xcen     :   1012.45
# ycen     :   1049.92
# xbet     :   0.423
# xgam     :   0.172
# pixelsize     :   0.0734
# ypixelsize     :   0.0734
# CCDLabel    :  sCMOS